Frequency (Hz)	Level (dB)
43.066406	-18.095673
86.132812	-14.105450
129.199219	-11.746956
172.265625	-12.209280
215.332031	-13.367355
258.398438	-13.522372
301.464844	-13.721273
344.531250	-14.017472
387.597656	-13.948403
430.664062	-14.233598
473.730469	-14.245569
516.796875	-14.344012
559.863281	-14.426796
602.929688	-14.164056
645.996094	-14.177688
689.062500	-14.535762
732.128906	-14.280220
775.195312	-14.522591
818.261719	-14.372074
861.328125	-14.770430
904.394531	-15.262869
947.460938	-15.303660
990.527344	-15.286330
1033.593750	-15.551240
1076.660156	-15.280107
1119.726562	-15.341485
1162.792969	-15.644699
1205.859375	-15.705012
1248.925781	-15.802162
1291.992188	-16.617905
1335.058594	-16.557545
1378.125000	-15.972819
1421.191406	-16.530079
1464.257812	-16.815443
1507.324219	-16.361092
1550.390625	-16.477079
1593.457031	-16.445278
1636.523438	-16.476564
1679.589844	-16.653847
1722.656250	-17.031746
1765.722656	-16.612001
1808.789062	-16.858946
1851.855469	-16.754766
1894.921875	-17.234346
1937.988281	-17.057928
1981.054688	-17.427563
2024.121094	-17.604025
2067.187500	-17.570189
2110.253906	-17.794985
2153.320312	-17.444813
2196.386719	-17.587618
2239.453125	-17.369001
2282.519531	-17.676855
2325.585938	-17.707926
2368.652344	-17.889227
2411.718750	-17.657301
2454.785156	-18.087500
2497.851562	-17.989603
2540.917969	-17.967995
2583.984375	-17.992685
2627.050781	-18.029205
2670.117188	-18.293165
2713.183594	-18.071077
2756.250000	-18.193878
2799.316406	-17.922430
2842.382812	-18.410837
2885.449219	-18.861692
2928.515625	-18.207373
2971.582031	-18.614058
3014.648438	-18.627645
3057.714844	-18.357864
3100.781250	-18.693663
3143.847656	-18.864042
3186.914062	-18.292267
3229.980469	-18.474390
3273.046875	-19.289351
3316.113281	-19.396271
3359.179688	-18.822172
3402.246094	-18.630507
3445.312500	-18.842714
3488.378906	-18.831982
3531.445312	-18.880297
3574.511719	-18.797792
3617.578125	-18.869749
3660.644531	-18.698572
3703.710938	-19.387175
3746.777344	-19.692127
3789.843750	-19.357731
3832.910156	-19.221481
3875.976562	-19.258764
3919.042969	-19.636524
3962.109375	-19.496037
4005.175781	-19.482412
4048.242188	-19.521885
4091.308594	-19.683037
4134.375000	-19.440636
4177.441406	-19.307148
4220.507812	-19.044470
4263.574219	-19.309334
4306.640625	-19.137911
4349.707031	-19.415270
4392.773438	-19.647259
4435.839844	-19.756889
4478.906250	-19.631321
4521.972656	-20.056633
4565.039062	-20.036102
4608.105469	-19.757229
4651.171875	-19.772375
4694.238281	-19.812880
4737.304688	-19.677477
4780.371094	-19.654417
4823.437500	-19.848381
4866.503906	-20.231815
4909.570312	-20.204311
4952.636719	-19.802618
4995.703125	-19.621277
5038.769531	-20.199146
5081.835938	-20.434069
5124.902344	-20.142788
5167.968750	-20.338181
5211.035156	-20.293676
5254.101562	-20.272144
5297.167969	-20.511009
5340.234375	-20.471912
5383.300781	-19.973637
5426.367188	-20.231676
5469.433594	-20.768970
5512.500000	-20.336622
5555.566406	-20.239994
5598.632812	-20.081339
5641.699219	-20.121592
5684.765625	-20.522972
5727.832031	-20.127848
5770.898438	-20.352135
5813.964844	-20.560114
5857.031250	-20.557640
5900.097656	-20.855721
5943.164062	-19.943401
5986.230469	-19.911867
6029.296875	-20.522982
6072.363281	-20.628740
6115.429688	-20.633713
6158.496094	-20.925657
6201.562500	-20.955410
6244.628906	-20.712826
6287.695312	-20.768099
6330.761719	-21.159718
6373.828125	-20.961178
6416.894531	-20.302855
6459.960938	-20.480610
6503.027344	-21.360298
6546.093750	-21.480450
6589.160156	-21.154736
6632.226562	-21.363594
6675.292969	-21.539272
6718.359375	-20.760324
6761.425781	-20.691984
6804.492188	-21.782467
6847.558594	-21.588533
6890.625000	-21.303398
6933.691406	-21.054623
6976.757812	-21.272720
7019.824219	-21.330791
7062.890625	-21.470552
7105.957031	-21.521055
7149.023438	-21.596380
7192.089844	-21.911896
7235.156250	-21.678972
7278.222656	-21.585386
7321.289062	-21.711691
7364.355469	-21.475529
7407.421875	-21.672886
7450.488281	-21.553423
7493.554688	-21.350927
7536.621094	-21.142530
7579.687500	-21.315897
7622.753906	-21.795776
7665.820312	-21.806713
7708.886719	-21.920408
7751.953125	-22.007759
7795.019531	-21.302719
7838.085938	-21.754196
7881.152344	-21.802177
7924.218750	-21.601656
7967.285156	-22.011831
8010.351562	-22.148357
8053.417969	-21.586607
8096.484375	-21.838688
8139.550781	-22.029757
8182.617188	-21.790657
8225.683594	-21.497963
8268.750000	-21.917126
8311.816406	-21.706982
8354.882812	-21.711601
8397.949219	-21.858562
8441.015625	-22.108011
8484.082031	-21.916735
8527.148438	-22.409330
8570.214844	-22.638399
8613.281250	-22.395029
8656.347656	-22.126644
8699.414062	-22.033646
8742.480469	-22.345798
8785.546875	-22.301458
8828.613281	-22.422466
8871.679688	-22.715515
8914.746094	-22.948233
8957.812500	-22.457104
9000.878906	-22.234039
9043.945312	-22.272266
9087.011719	-22.262255
9130.078125	-22.606075
9173.144531	-22.770798
9216.210938	-22.616165
9259.277344	-22.813217
9302.343750	-22.963169
9345.410156	-22.845722
9388.476562	-22.693428
9431.542969	-22.457193
9474.609375	-22.530558
9517.675781	-22.731087
9560.742188	-22.321392
9603.808594	-22.392553
9646.875000	-22.673815
9689.941406	-22.984591
9733.007812	-22.814720
9776.074219	-22.499195
9819.140625	-22.752268
9862.207031	-22.747725
9905.273438	-22.759659
9948.339844	-22.857655
9991.406250	-22.678974
10034.472656	-22.982500
10077.539062	-23.133623
10120.605469	-23.191216
10163.671875	-23.208054
10206.738281	-23.237139
10249.804688	-23.084612
10292.871094	-23.049685
10335.937500	-22.738976
10379.003906	-22.824240
10422.070312	-22.780489
10465.136719	-22.567657
10508.203125	-22.553022
10551.269531	-22.747021
10594.335938	-23.152100
10637.402344	-23.280874
10680.468750	-23.109934
10723.535156	-23.192909
10766.601562	-23.404589
10809.667969	-23.474264
10852.734375	-23.281385
10895.800781	-23.422581
10938.867188	-22.965527
10981.933594	-23.173843
11025.000000	-23.497091
11068.066406	-23.521366
11111.132812	-23.798977
11154.199219	-23.928949
11197.265625	-24.096313
11240.332031	-23.280865
11283.398438	-23.212753
11326.464844	-23.270905
11369.531250	-23.961552
11412.597656	-23.738901
11455.664062	-23.662891
11498.730469	-23.820169
11541.796875	-23.131363
11584.863281	-23.294489
11627.929688	-23.671188
11670.996094	-24.366137
11714.062500	-23.624617
11757.128906	-23.352440
11800.195312	-23.655174
11843.261719	-23.579678
11886.328125	-23.384682
11929.394531	-23.470297
11972.460938	-23.729868
12015.527344	-23.642181
12058.593750	-23.639950
12101.660156	-23.741770
12144.726562	-23.399916
12187.792969	-23.330660
12230.859375	-23.833187
12273.925781	-23.725266
12316.992188	-23.552799
12360.058594	-24.028936
12403.125000	-24.437426
12446.191406	-24.657682
12489.257812	-23.919716
12532.324219	-24.462383
12575.390625	-24.668171
12618.457031	-24.704182
12661.523438	-24.488771
12704.589844	-24.723660
12747.656250	-24.759830
12790.722656	-24.398899
12833.789062	-24.127729
12876.855469	-24.264669
12919.921875	-24.034302
12962.988281	-24.041044
13006.054688	-24.295807
13049.121094	-24.362951
13092.187500	-24.224747
13135.253906	-24.149347
13178.320312	-24.851961
13221.386719	-24.660286
13264.453125	-24.631306
13307.519531	-24.634371
13350.585938	-24.211533
13393.652344	-24.132595
13436.718750	-24.980289
13479.785156	-24.701649
13522.851562	-24.527048
13565.917969	-24.167656
13608.984375	-24.182156
13652.050781	-24.751257
13695.117188	-24.753420
13738.183594	-24.580524
13781.250000	-24.768011
13824.316406	-24.906019
13867.382812	-24.529173
13910.449219	-25.162432
13953.515625	-25.213213
13996.582031	-24.865499
14039.648438	-24.522869
14082.714844	-24.811726
14125.781250	-24.560764
14168.847656	-24.849308
14211.914062	-25.196632
14254.980469	-24.791706
14298.046875	-24.804848
14341.113281	-24.962921
14384.179688	-25.581743
14427.246094	-25.627829
14470.312500	-25.092407
14513.378906	-24.801502
14556.445312	-25.172874
14599.511719	-25.148899
14642.578125	-24.725739
14685.644531	-25.068855
14728.710938	-25.375341
14771.777344	-25.521421
14814.843750	-25.656607
14857.910156	-25.255892
14900.976562	-25.146450
14944.042969	-25.168217
14987.109375	-25.142467
15030.175781	-24.869558
15073.242188	-25.262526
15116.308594	-25.531458
15159.375000	-25.042192
15202.441406	-24.946423
15245.507812	-25.614056
15288.574219	-25.539825
15331.640625	-25.464911
15374.707031	-25.985239
15417.773438	-25.417244
15460.839844	-24.607279
15503.906250	-25.042713
15546.972656	-25.387596
15590.039062	-25.502747
15633.105469	-25.165735
15676.171875	-25.263174
15719.238281	-25.764793
15762.304688	-26.022911
15805.371094	-26.255474
15848.437500	-25.786730
15891.503906	-25.691807
15934.570312	-25.847374
15977.636719	-25.499748
16020.703125	-25.746014
16063.769531	-25.722902
16106.835938	-25.926348
16149.902344	-25.750830
16192.968750	-26.056549
16236.035156	-25.931602
16279.101562	-25.668457
16322.167969	-25.959688
16365.234375	-25.561619
16408.300781	-25.574482
16451.367188	-25.925577
16494.433594	-25.347757
16537.500000	-25.710142
16580.566406	-25.794603
16623.632812	-25.716881
16666.699219	-25.807848
16709.765625	-26.014633
16752.832031	-26.033203
16795.898438	-26.397257
16838.964844	-26.414244
16882.031250	-26.306089
16925.097656	-26.257483
16968.164062	-26.008564
17011.230469	-26.228439
17054.296875	-26.434019
17097.363281	-26.699575
17140.429688	-26.001812
17183.496094	-26.281487
17226.562500	-26.021839
17269.628906	-26.339533
17312.695312	-26.776699
17355.761719	-26.445038
17398.828125	-26.337654
17441.894531	-26.466875
17484.960938	-26.238163
17528.027344	-26.299313
17571.093750	-26.070034
17614.160156	-26.233528
17657.226562	-26.500000
17700.292969	-26.432785
17743.359375	-26.782612
17786.425781	-26.926470
17829.492188	-26.037600
17872.558594	-26.474358
17915.625000	-26.557375
17958.691406	-26.511072
18001.757812	-26.549082
18044.824219	-27.139933
18087.890625	-26.998550
18130.957031	-27.135195
18174.023438	-27.120415
18217.089844	-27.078077
18260.156250	-27.305052
18303.222656	-27.469196
18346.289062	-27.392132
18389.355469	-27.104223
18432.421875	-26.582674
18475.488281	-27.029661
18518.554688	-27.198542
18561.621094	-26.906731
18604.687500	-27.097460
18647.753906	-27.193342
18690.820312	-27.525633
18733.886719	-27.577641
18776.953125	-27.459124
18820.019531	-27.917759
18863.085938	-27.397453
18906.152344	-27.171448
18949.218750	-27.309696
18992.285156	-27.311125
19035.351562	-27.584488
19078.417969	-27.631689
19121.484375	-27.287689
19164.550781	-27.575701
19207.617188	-27.890751
19250.683594	-27.857531
19293.750000	-27.981462
19336.816406	-27.874968
19379.882812	-27.666456
19422.949219	-27.688873
19466.015625	-27.731039
19509.082031	-27.453369
19552.148438	-27.249264
19595.214844	-27.497879
19638.281250	-27.865128
19681.347656	-27.518103
19724.414062	-27.064924
19767.480469	-27.365097
19810.546875	-28.165915
19853.613281	-28.068359
19896.679688	-28.137527
19939.746094	-27.535051
19982.812500	-27.525776
20025.878906	-27.369785
20068.945312	-27.916084
20112.011719	-28.271177
20155.078125	-28.071585
20198.144531	-28.208466
20241.210938	-28.333395
20284.277344	-27.909647
20327.343750	-27.904774
20370.410156	-28.364489
20413.476562	-28.236933
20456.542969	-28.612932
20499.609375	-28.812328
20542.675781	-28.435303
20585.742188	-28.513725
20628.808594	-28.423948
20671.875000	-28.072626
20714.941406	-28.351721
20758.007812	-28.125511
20801.074219	-28.055851
20844.140625	-28.304098
20887.207031	-28.769852
20930.273438	-28.241581
20973.339844	-28.553772
21016.406250	-28.271387
21059.472656	-27.901714
21102.539062	-28.106808
21145.605469	-28.654026
21188.671875	-28.797338
21231.738281	-28.838274
21274.804688	-28.791262
21317.871094	-28.863285
21360.937500	-29.159502
21404.003906	-29.365171
21447.070312	-28.945215
21490.136719	-28.596035
21533.203125	-29.220284
21576.269531	-29.425846
21619.335938	-29.254662
21662.402344	-29.589045
21705.468750	-29.374931
21748.535156	-29.819933
21791.601562	-29.803717
21834.667969	-29.792187
21877.734375	-30.789078
21920.800781	-30.974934
21963.867188	-31.309622
22006.933594	-32.038277
